Data from QEP037381__248__16-11-09-903.txt Node

Date: Fri Dec 16 16:11:09 EST 2022
User: dcclab
Spectrometer: QEP03738
Trigger mode: 4
Integration Time (sec): 1.000000E1
Scans to average: 1
Electric dark correction enabled: true
Nonlinearity correction enabled: false
Boxcar width: 0
XAxis mode: Wavelengths
Number of Pixels in Spectrum: 1044
>>>>>Begin Spectral Data<<<<<
784.041	15
784.3	-2
784.558	-3
784.817	-3
785.075	104922
785.334	18225
785.592	8567
785.851	5889
786.109	4365
786.368	3463
786.626	2755
786.884	2290
787.143	1962
787.401	1603
787.659	1463
787.917	1248
788.175	1152
788.433	1009
788.691	906
788.949	834
789.207	798
789.465	706
789.723	674
789.98	618
790.238	660
790.496	621
790.753	580
791.011	646
791.268	576
791.526	570
791.783	573
792.041	552
792.298	487
792.556	529
792.813	510
793.07	502
793.327	479
793.584	559
793.841	502
794.099	498
794.356	547
794.613	464
794.869	490
795.126	451
795.383	438
795.64	466
795.897	411
796.153	502
796.41	449
796.667	446
796.923	456
797.18	456
797.436	485
797.693	440
797.949	505
798.206	536
798.462	445
798.718	514
798.974	502
799.231	542
799.487	521
799.743	532
799.999	578
800.255	572
800.511	559
800.767	619
801.023	624
801.279	650
801.534	701
801.79	764
802.046	820
802.302	1004
802.557	1172
802.813	1499
803.068	1903
803.324	2669
803.579	3692
803.835	5106
804.09	7030
804.345	9244
804.601	11654
804.856	14125
805.111	16289
805.366	18033
805.621	19238
805.876	20066
806.131	20634
806.386	21114
806.641	21576
806.896	21881
807.151	22240
807.406	22563
807.661	23069
807.915	23457
808.17	23717
808.425	24059
808.679	24233
808.934	24579
809.188	24711
809.443	25010
809.697	25338
809.951	25564
810.206	25704
810.46	26012
810.714	26172
810.968	26533
811.223	26712
811.477	26870
811.731	26981
811.985	27240
812.239	27313
812.493	27547
812.747	27645
813	27577
813.254	27778
813.508	28029
813.762	28092
814.015	28194
814.269	28358
814.522	28718
814.776	29127
815.03	29415
815.283	29839
815.536	30192
815.79	30625
816.043	31240
816.296	31471
816.55	31939
816.803	32258
817.056	32721
817.309	32987
817.562	33267
817.815	33579
818.068	33868
818.321	34215
818.574	34663
818.827	35072
819.079	35399
819.332	36136
819.585	36394
819.838	36989
820.09	37121
820.343	37501
820.595	37700
820.848	37983
821.1	38006
821.353	37943
821.605	37991
821.857	38099
822.11	37964
822.362	37771
822.614	37610
822.866	37610
823.118	37727
823.37	37808
823.622	37865
823.874	38049
824.126	38157
824.378	38235
824.63	38389
824.882	38435
825.134	38262
825.385	38330
825.637	38278
825.888	38058
826.14	38035
826.392	38044
826.643	37848
826.895	37660
827.146	37484
827.397	37343
827.649	37421
827.9	37334
828.151	37430
828.402	37460
828.653	37571
828.905	37723
829.156	37779
829.407	37894
829.658	37700
829.909	37762
830.159	37650
830.41	37594
830.661	37266
830.912	37111
831.162	37003
831.413	36841
831.664	36861
831.914	36979
832.165	36723
832.415	36762
832.666	36831
832.916	36976
833.167	36659
833.417	36708
833.667	36780
833.917	36588
834.168	36534
834.418	36459
834.668	36251
834.918	35978
835.168	35913
835.418	35844
835.668	35676
835.918	35641
836.167	35531
836.417	35265
836.667	35332
836.917	35395
837.166	35237
837.416	35219
837.666	35327
837.915	35290
838.165	35091
838.414	34980
838.663	35012
838.913	34891
839.162	34921
839.411	34909
839.661	34642
839.91	34554
840.159	34570
840.408	34502
840.657	34408
840.906	34554
841.155	34525
841.404	34480
841.653	34531
841.902	34467
842.15	34679
842.399	34604
842.648	34392
842.897	34381
843.145	34168
843.394	34002
843.642	33865
843.891	33569
844.139	33529
844.388	33244
844.636	33158
844.884	33117
845.133	33065
845.381	33006
845.629	33106
845.877	32961
846.125	33093
846.373	32855
846.621	32836
846.869	32706
847.117	32463
847.365	32161
847.613	32172
847.861	32072
848.108	32073
848.356	32132
848.604	31937
848.851	31848
849.099	31974
849.346	31968
849.594	32200
849.841	32212
850.089	32186
850.336	32210
850.583	32126
850.831	32157
851.078	31923
851.325	31983
851.572	31929
851.819	31767
852.066	31119
852.313	30782
852.56	30447
852.807	30334
853.054	30221
853.301	30241
853.548	30169
853.794	30391
854.041	30464
854.288	30473
854.534	30827
854.781	30817
855.028	30645
855.274	30709
855.52	30474
855.767	30215
856.013	30175
856.26	30559
856.506	29916
856.752	29972
856.998	30001
857.244	30050
857.49	30149
857.736	30217
857.982	30275
858.228	30190
858.474	29919
858.72	29708
858.966	29475
859.212	29244
859.458	28869
859.703	28654
859.949	28393
860.195	28116
860.44	28085
860.686	27845
860.931	27946
861.177	27711
861.422	27651
861.667	27501
861.913	27439
862.158	27497
862.403	27702
862.648	27598
862.893	27783
863.138	27668
863.384	27590
863.629	27550
863.873	27402
864.118	27496
864.363	27266
864.608	27211
864.853	27159
865.098	26993
865.342	26986
865.587	26828
865.832	26697
866.076	26623
866.321	26592
866.565	26514
866.81	26353
867.054	26369
867.298	26168
867.543	26177
867.787	26155
868.031	26080
868.275	26020
868.519	25959
868.764	25939
869.008	25851
869.252	25816
869.496	25723
869.739	25566
869.983	25691
870.227	25687
870.471	25604
870.715	25773
870.958	25701
871.202	25812
871.446	25823
871.689	25902
871.933	25815
872.176	25844
872.42	25808
872.663	25710
872.906	25568
873.15	25522
873.393	25488
873.636	25347
873.879	25115
874.122	24942
874.366	24556
874.609	24469
874.852	24120
875.095	24208
875.337	24063
875.58	23936
875.823	23725
876.066	23704
876.309	23731
876.551	23531
876.794	23433
877.037	23412
877.279	23324
877.522	23385
877.764	23315
878.007	23202
878.249	23280
878.491	23033
878.734	23203
878.976	23042
879.218	22865
879.46	22789
879.702	22601
879.945	22480
880.187	22410
880.429	22202
880.671	22041
880.912	22080
881.154	21874
881.396	21889
881.638	21819
881.88	21812
882.121	21810
882.363	21834
882.605	21772
882.846	21665
883.088	21603
883.329	21606
883.571	21546
883.812	21686
884.053	22043
884.295	22222
884.536	22449
884.777	22424
885.018	22236
885.259	22284
885.5	22113
885.742	22263
885.982	22019
886.223	21689
886.464	21730
886.705	21464
886.946	21308
887.187	20918
887.428	20799
887.668	20526
887.909	20262
888.15	20171
888.39	19941
888.631	19761
888.871	19647
889.111	19497
889.352	19317
889.592	19225
889.833	19111
890.073	18883
890.313	18904
890.553	18709
890.793	18690
891.033	18547
891.273	18419
891.513	18379
891.753	18313
891.993	18288
892.233	18265
892.473	18450
892.713	18387
892.952	18380
893.192	18504
893.432	18326
893.671	18411
893.911	18215
894.15	18077
894.39	17983
894.629	17907
894.869	17838
895.108	17758
895.347	17566
895.587	17582
895.826	17567
896.065	17562
896.304	17495
896.543	17547
896.782	17350
897.021	17346
897.26	17275
897.499	17312
897.738	17385
897.977	17154
898.216	16992
898.454	16924
898.693	16754
898.932	16788
899.17	16705
899.409	16591
899.647	16612
899.886	16507
900.124	16641
900.363	16553
900.601	16690
900.839	16644
901.078	16645
901.316	16775
901.554	16810
901.792	16897
902.03	16945
902.268	16821
902.506	16893
902.744	16722
902.982	16451
903.22	16243
903.458	16021
903.695	15918
903.933	15657
904.171	15380
904.409	15186
904.646	14969
904.884	14807
905.121	14652
905.359	14437
905.596	14344
905.833	14233
906.071	14206
906.308	14116
906.545	14010
906.783	13976
907.02	13938
907.257	13821
907.494	13813
907.731	13764
907.968	13690
908.205	13643
908.442	13509
908.679	13500
908.915	13355
909.152	13352
909.389	13045
909.626	13109
909.862	12916
910.099	12987
910.335	12905
910.572	12843
910.808	12773
911.045	12704
911.281	12699
911.518	12652
911.754	12483
911.99	12457
912.226	12432
912.463	12312
912.699	12164
912.935	12167
913.171	12050
913.407	11919
913.643	11818
913.879	11710
914.114	11626
914.35	11485
914.586	11415
914.822	11340
915.057	11337
915.293	11047
915.529	11046
915.764	11144
916	11113
916.235	11089
916.471	11007
916.706	10863
916.941	10897
917.177	10957
917.412	10958
917.647	10893
917.882	10805
918.117	10845
918.352	10802
918.588	10734
918.823	10633
919.057	10593
919.292	10358
919.527	10416
919.762	10262
919.997	10227
920.232	10050
920.466	9969
920.701	9757
920.935	9801
921.17	9789
921.405	9654
921.639	9728
921.873	9682
922.108	9597
922.342	9616
922.576	9512
922.811	9464
923.045	9420
923.279	9509
923.513	9242
923.747	9373
923.981	9258
924.215	9146
924.449	9041
924.683	8989
924.917	9000
925.151	8979
925.385	8947
925.618	8960
925.852	8958
926.086	8839
926.319	8916
926.553	8780
926.786	8854
927.02	8823
927.253	8875
927.486	8764
927.72	8745
927.953	8735
928.186	8716
928.42	8710
928.653	8600
928.886	8631
929.119	8556
929.352	8511
929.585	8421
929.818	8343
930.051	8367
930.284	8283
930.516	8139
930.749	8102
930.982	8221
931.215	8059
931.447	7986
931.68	8006
931.912	7909
932.145	7913
932.377	7882
932.61	8052
932.842	7864
933.074	7921
933.307	7825
933.539	7875
933.771	7952
934.003	7866
934.236	7932
934.468	7906
934.7	7841
934.932	7800
935.164	7759
935.395	7744
935.627	7749
935.859	7741
936.091	7594
936.323	7660
936.554	7626
936.786	7587
937.017	7525
937.249	7514
937.481	7421
937.712	7467
937.943	7492
938.175	7438
938.406	7352
938.637	7452
938.869	7301
939.1	7379
939.331	7341
939.562	7343
939.793	7316
940.024	7285
940.255	7272
940.486	7122
940.717	7165
940.948	7167
941.179	7051
941.409	7041
941.64	7025
941.871	7038
942.102	7082
942.332	6948
942.563	7029
942.793	7067
943.024	6972
943.254	6957
943.484	7021
943.715	7024
943.945	7006
944.175	6898
944.405	6923
944.636	6893
944.866	6963
945.096	6860
945.326	6825
945.556	6872
945.786	6900
946.016	6770
946.245	6712
946.475	6700
946.705	6624
946.935	6606
947.164	6601
947.394	6541
947.624	6491
947.853	6453
948.083	6411
948.312	6409
948.542	6304
948.771	6275
949	6297
949.23	6229
949.459	6295
949.688	6395
949.917	6278
950.146	6274
950.375	6317
950.604	6212
950.833	6302
951.062	6247
951.291	6173
951.52	6149
951.749	6121
951.978	6118
952.206	6099
952.435	6001
952.664	6087
952.892	6077
953.121	6003
953.349	6020
953.578	6012
953.806	5957
954.035	5875
954.263	5907
954.491	5845
954.719	5842
954.948	5827
955.176	5730
955.404	5616
955.632	5730
955.86	5706
956.088	5642
956.316	5686
956.544	5682
956.772	5533
956.999	5513
957.227	5561
957.455	5457
957.683	5483
957.91	5408
958.138	5366
958.365	5366
958.593	5396
958.82	5290
959.048	5377
959.275	5323
959.502	5249
959.73	5214
959.957	5255
960.184	5220
960.411	5179
960.638	5223
960.865	5194
961.092	5161
961.319	5088
961.546	5202
961.773	5204
962	5100
962.227	5168
962.454	5073
962.68	5089
962.907	5075
963.134	4965
963.36	5001
963.587	4971
963.813	4923
964.04	4901
964.266	4792
964.493	4926
964.719	4841
964.945	4823
965.171	4722
965.398	4765
965.624	4749
965.85	4688
966.076	4668
966.302	4716
966.528	4638
966.754	4681
966.98	4652
967.206	4636
967.431	4520
967.657	4586
967.883	4601
968.109	4532
968.334	4495
968.56	4501
968.785	4494
969.011	4417
969.236	4464
969.462	4375
969.687	4390
969.912	4421
970.138	4471
970.363	4373
970.588	4362
970.813	4329
971.038	4263
971.263	4288
971.488	4324
971.713	4364
971.938	4249
972.163	4198
972.388	4177
972.613	4126
972.838	4178
973.062	4145
973.287	4123
973.512	3994
973.736	4104
973.961	4062
974.185	4015
974.41	4051
974.634	3888
974.858	3921
975.083	3970
975.307	3951
975.531	3887
975.755	3797
975.98	3813
976.204	3744
976.428	3740
976.652	3696
976.876	3754
977.1	3728
977.324	3672
977.547	3710
977.771	3738
977.995	3693
978.219	3585
978.442	3721
978.666	3623
978.89	3642
979.113	3646
979.337	3590
979.56	3561
979.783	3619
980.007	3537
980.23	3532
980.453	3528
980.677	3516
980.9	3489
981.123	3421
981.346	3482
981.569	3465
981.792	3488
982.015	3394
982.238	3374
982.461	3401
982.684	3315
982.907	3275
983.129	3271
983.352	3262
983.575	3272
983.797	3222
984.02	3198
984.242	3210
984.465	3190
984.687	3247
984.91	3236
985.132	3191
985.354	3186
985.577	3131
985.799	3105
986.021	3033
986.243	3063
986.465	3106
986.687	3111
986.909	3126
987.131	3059
987.353	3001
987.575	3068
987.797	2968
988.019	2944
988.241	2996
988.462	2954
988.684	3005
988.906	3018
989.127	3014
989.349	2907
989.57	2920
989.792	2955
990.013	2965
990.234	2967
990.456	2947
990.677	2942
990.898	2859
991.119	2887
991.341	2884
991.562	2813
991.783	2867
992.004	2800
992.225	2743
992.446	2802
992.667	2712
992.887	2787
993.108	2673
993.329	2763
993.55	2743
993.77	2645
993.991	2614
994.212	2644
994.432	2582
994.653	2641
994.873	2640
995.093	2506
995.314	2532
995.534	2605
995.754	2622
995.975	2630
996.195	2522
996.415	2563
996.635	2536
996.855	2543
997.075	2506
997.295	2522
997.515	2463
997.735	2545
997.955	2488
998.174	2476
998.394	2468
998.614	2529
998.834	2435
999.053	2504
999.273	2484
999.492	2493
999.712	2425
999.931	2392
1000.151	2419
1000.37	2418
1000.589	2437
1000.809	2375
1001.028	2466
1001.247	2401
1001.466	2271
1001.685	2386
1001.904	2329
1002.123	2315
1002.342	2306
1002.561	2244
1002.78	2323
1002.999	2319
1003.218	2269
1003.436	2247
1003.655	2276
1003.874	2220
1004.092	2235
1004.311	2264
1004.53	2221
1004.748	2259
1004.966	2193
1005.185	2221
1005.403	2222
1005.622	2214
1005.84	2305
1006.058	2179
1006.276	2194
1006.494	2676
1006.712	2186
1006.931	2233
1007.149	2154
1007.367	2140
1007.584	2193
1007.802	2217
1008.02	2168
1008.238	2239
1008.456	2281
1008.673	2137
1008.891	2276
1009.109	2198
1009.326	2260
1009.544	2386
1009.761	2256
1009.979	2397
1010.196	2415
1010.413	2563
1010.631	2633
1010.848	2660
1011.065	2708
1011.282	2627
1011.5	2555
1011.717	2660
1011.934	2615
1012.151	2643
1012.368	2606
1012.585	2560
1012.801	2608
1013.018	2553
1013.235	2543
1013.452	2561
1013.669	2557
1013.885	2583
1014.102	2614
1014.318	2565
1014.535	2529
1014.751	2593
1014.968	2520
1015.184	2569
1015.401	2475
1015.617	2487
1015.833	2422
1016.049	2408
1016.266	2343
1016.482	2394
1016.698	2271
1016.914	2357
1017.13	2293
1017.346	2291
1017.562	2298
1017.778	2270
1017.993	2240
1018.209	2268
1018.425	2261
1018.641	2236
1018.856	2210
1019.072	2233
1019.288	2240
1019.503	2214
1019.719	2148
1019.934	2145
1020.149	2207
1020.365	2144
1020.58	2072
1020.795	2127
1021.011	2032
1021.226	2015
1021.441	1999
1021.656	1912
1021.871	1791
1022.086	1825
1022.301	1805
1022.516	1758
1022.731	1828
1022.946	1696
1023.16	1690
1023.375	1647
1023.59	1644
1023.804	1583
1024.019	1654
1024.234	1557
1024.448	1548
1024.663	1456
1024.877	1460
1025.092	1483
1025.306	1464
1025.52	1354
1025.734	1439
1025.949	1347
1026.163	1300
1026.377	1231
1026.591	1281
1026.805	1200
1027.019	1152
1027.233	1152
1027.447	1084
1027.661	1196
1027.875	1121
1028.088	1097
1028.302	1001
1028.516	1018
1028.73	984
1028.943	990
1029.157	920
1029.37	855
1029.584	-2
1029.797	0
1030.011	-2
1030.224	-3
