Data from QEP037381__302__11-10-56-590.txt Node

Date: Wed Dec 21 11:10:56 EST 2022
User: dcclab
Spectrometer: QEP03738
Trigger mode: 4
Integration Time (sec): 1.000000E1
Scans to average: 1
Electric dark correction enabled: true
Nonlinearity correction enabled: false
Boxcar width: 0
XAxis mode: Wavelengths
Number of Pixels in Spectrum: 1044
>>>>>Begin Spectral Data<<<<<
784.041	16
784.3	3
784.558	-2
784.817	-5
785.075	101956
785.334	18059
785.592	8713
785.851	6079
786.109	4560
786.368	3507
786.626	2774
786.884	2348
787.143	1993
787.401	1604
787.659	1450
787.917	1223
788.175	1130
788.433	984
788.691	882
788.949	806
789.207	753
789.465	648
789.723	623
789.98	569
790.238	608
790.496	571
790.753	526
791.011	574
791.268	505
791.526	501
791.783	515
792.041	498
792.298	405
792.556	481
792.813	457
793.07	435
793.327	412
793.584	492
793.841	410
794.099	428
794.356	476
794.613	385
794.869	433
795.126	391
795.383	372
795.64	390
795.897	354
796.153	405
796.41	396
796.667	374
796.923	374
797.18	383
797.436	391
797.693	350
797.949	410
798.206	438
798.462	351
798.718	404
798.974	387
799.231	430
799.487	401
799.743	406
799.999	431
800.255	404
800.511	381
800.767	418
801.023	403
801.279	409
801.534	424
801.79	431
802.046	410
802.302	481
802.557	474
802.813	536
803.068	535
803.324	674
803.579	774
803.835	975
804.09	1262
804.345	1558
804.601	1906
804.856	2357
805.111	2695
805.366	2879
805.621	3095
805.876	3249
806.131	3245
806.386	3256
806.641	3311
806.896	3401
807.151	3539
807.406	3516
807.661	3589
807.915	3674
808.17	3703
808.425	3740
808.679	3793
808.934	3897
809.188	3858
809.443	4030
809.697	4005
809.951	3963
810.206	4039
810.46	4124
810.714	4153
810.968	4243
811.223	4157
811.477	4258
811.731	4297
811.985	4279
812.239	4276
812.493	4319
812.747	4344
813	4309
813.254	4403
813.508	4491
813.762	4460
814.015	4429
814.269	4510
814.522	4560
814.776	4577
815.03	4644
815.283	4714
815.536	4816
815.79	4859
816.043	4954
816.296	5052
816.55	5078
816.803	5140
817.056	5293
817.309	5307
817.562	5384
817.815	5437
818.068	5454
818.321	5477
818.574	5548
818.827	5678
819.079	5738
819.332	5940
819.585	5988
819.838	6089
820.09	6049
820.343	6096
820.595	6038
820.848	6135
821.1	6181
821.353	6190
821.605	6152
821.857	6206
822.11	6141
822.362	6107
822.614	6175
822.866	6149
823.118	6111
823.37	6288
823.622	6276
823.874	6264
824.126	6337
824.378	6276
824.63	6369
824.882	6389
825.134	6293
825.385	6295
825.637	6303
825.888	6247
826.14	6225
826.392	6215
826.643	6154
826.895	6191
827.146	6098
827.397	6113
827.649	6137
827.9	6105
828.151	6055
828.402	6090
828.653	6133
828.905	6184
829.156	6181
829.407	6119
829.658	6224
829.909	6274
830.159	6297
830.41	6268
830.661	6149
830.912	6144
831.162	6132
831.413	6147
831.664	6243
831.914	6175
832.165	6160
832.415	6197
832.666	6159
832.916	6215
833.167	6159
833.417	6188
833.667	6215
833.917	6114
834.168	6255
834.418	6210
834.668	6202
834.918	6131
835.168	6096
835.418	6068
835.668	6075
835.918	6060
836.167	6080
836.417	5989
836.667	6097
836.917	6056
837.166	6017
837.416	6042
837.666	6084
837.915	6032
838.165	6051
838.414	5981
838.663	5984
838.913	6051
839.162	5995
839.411	6105
839.661	6024
839.91	6036
840.159	6012
840.408	6016
840.657	6074
840.906	6031
841.155	6152
841.404	6047
841.653	6056
841.902	6049
842.15	6079
842.399	6138
842.648	6093
842.897	6092
843.145	6018
843.394	5994
843.642	5929
843.891	5985
844.139	5932
844.388	5842
844.636	5802
844.884	5853
845.133	5830
845.381	5846
845.629	5886
845.877	5874
846.125	5894
846.373	5849
846.621	5803
846.869	5804
847.117	5857
847.365	5742
847.613	5780
847.861	5766
848.108	5800
848.356	5808
848.604	5739
848.851	5804
849.099	5869
849.346	5853
849.594	5810
849.841	5925
850.089	5986
850.336	5996
850.583	6039
850.831	6067
851.078	6075
851.325	5987
851.572	6142
851.819	6073
852.066	5833
852.313	5653
852.56	5547
852.807	5515
853.054	5575
853.301	5578
853.548	5659
853.794	5713
854.041	5676
854.288	5758
854.534	5854
854.781	5794
855.028	5759
855.274	5799
855.52	5717
855.767	5737
856.013	5742
856.26	6052
856.506	5717
856.752	5685
856.998	5698
857.244	5687
857.49	5746
857.736	5805
857.982	5784
858.228	5725
858.474	5614
858.72	5676
858.966	5629
859.212	5534
859.458	5488
859.703	5396
859.949	5370
860.195	5352
860.44	5323
860.686	5270
860.931	5365
861.177	5294
861.422	5223
861.667	5160
861.913	5171
862.158	5202
862.403	5239
862.648	5318
862.893	5332
863.138	5297
863.384	5249
863.629	5332
863.873	5250
864.118	5210
864.363	5203
864.608	5233
864.853	5235
865.098	5184
865.342	5153
865.587	5060
865.832	5103
866.076	5159
866.321	5114
866.565	5174
866.81	5080
867.054	5099
867.298	5115
867.543	5054
867.787	5140
868.031	5099
868.275	5113
868.519	5109
868.764	5156
869.008	5131
869.252	5172
869.496	5177
869.739	5161
869.983	5224
870.227	5220
870.471	5238
870.715	5275
870.958	5262
871.202	5215
871.446	5283
871.689	5259
871.933	5278
872.176	5279
872.42	5234
872.663	5252
872.906	5344
873.15	5297
873.393	5251
873.636	5332
873.879	5308
874.122	5302
874.366	5064
874.609	5091
874.852	5020
875.095	5041
875.337	4955
875.58	4862
875.823	4938
876.066	4939
876.309	4950
876.551	4880
876.794	4815
877.037	4861
877.279	4799
877.522	4797
877.764	4811
878.007	4763
878.249	4799
878.491	4724
878.734	4821
878.976	4769
879.218	4687
879.46	4739
879.702	4663
879.945	4606
880.187	4573
880.429	4553
880.671	4532
880.912	4532
881.154	4538
881.396	4478
881.638	4585
881.88	4531
882.121	4523
882.363	4495
882.605	4541
882.846	4604
883.088	4586
883.329	4560
883.571	4608
883.812	4708
884.053	4905
884.295	5089
884.536	5276
884.777	5168
885.018	5108
885.259	5103
885.5	5062
885.742	5253
885.982	5036
886.223	4932
886.464	4853
886.705	4772
886.946	4731
887.187	4538
887.428	4573
887.668	4400
887.909	4352
888.15	4286
888.39	4241
888.631	4268
888.871	4239
889.111	4171
889.352	4149
889.592	4046
889.833	4057
890.073	4026
890.313	4081
890.553	3915
890.793	3960
891.033	3936
891.273	3932
891.513	3914
891.753	3985
891.993	3952
892.233	3992
892.473	4026
892.713	3966
892.952	3958
893.192	4034
893.432	3968
893.671	4059
893.911	4010
894.15	3989
894.39	3917
894.629	3900
894.869	3955
895.108	3911
895.347	3858
895.587	3922
895.826	3890
896.065	3864
896.304	3926
896.543	3938
896.782	3882
897.021	3894
897.26	3890
897.499	3958
897.738	4009
897.977	3895
898.216	3890
898.454	3870
898.693	3832
898.932	3879
899.17	3849
899.409	3881
899.647	3854
899.886	3804
900.124	3926
900.363	3860
900.601	3948
900.839	3939
901.078	3962
901.316	4014
901.554	4075
901.792	4114
902.03	4073
902.268	4135
902.506	4176
902.744	4071
902.982	4068
903.22	3908
903.458	3871
903.695	3783
903.933	3737
904.171	3635
904.409	3579
904.646	3560
904.884	3445
905.121	3476
905.359	3413
905.596	3370
905.833	3260
906.071	3275
906.308	3324
906.545	3271
906.783	3185
907.02	3243
907.257	3180
907.494	3172
907.731	3220
907.968	3219
908.205	3172
908.442	3145
908.679	3133
908.915	3119
909.152	3077
909.389	3004
909.626	3060
909.862	3008
910.099	3010
910.335	3030
910.572	2916
910.808	3002
911.045	2925
911.281	2966
911.518	3003
911.754	2927
911.99	2965
912.226	2897
912.463	2869
912.699	2860
912.935	2899
913.171	2837
913.407	2775
913.643	2852
913.879	2794
914.114	2772
914.35	2693
914.586	2730
914.822	2683
915.057	2772
915.293	2640
915.529	2633
915.764	2706
916	2665
916.235	2677
916.471	2687
916.706	2603
916.941	2609
917.177	2632
917.412	2690
917.647	2659
917.882	2608
918.117	2677
918.352	2666
918.588	2684
918.823	2643
919.057	2579
919.292	2498
919.527	2613
919.762	2513
919.997	2567
920.232	2513
920.466	2528
920.701	2406
920.935	2464
921.17	2417
921.405	2391
921.639	2461
921.873	2404
922.108	2438
922.342	2461
922.576	2353
922.811	2348
923.045	2454
923.279	2448
923.513	2325
923.747	2413
923.981	2385
924.215	2341
924.449	2331
924.683	2275
924.917	2321
925.151	2266
925.385	2337
925.618	2311
925.852	2318
926.086	2237
926.319	2266
926.553	2269
926.786	2296
927.02	2308
927.253	2328
927.486	2346
927.72	2257
927.953	2336
928.186	2251
928.42	2331
928.653	2243
928.886	2198
929.119	2263
929.352	2280
929.585	2216
929.818	2207
930.051	2235
930.284	2247
930.516	2125
930.749	2160
930.982	2217
931.215	2189
931.447	2131
931.68	2165
931.912	2135
932.145	2121
932.377	2156
932.61	2269
932.842	2060
933.074	2142
933.307	2137
933.539	2201
933.771	2202
934.003	2161
934.236	2210
934.468	2229
934.7	2178
934.932	2202
935.164	2132
935.395	2092
935.627	2159
935.859	2168
936.091	2093
936.323	2167
936.554	2164
936.786	2104
937.017	2090
937.249	2137
937.481	2050
937.712	2149
937.943	2132
938.175	2115
938.406	2108
938.637	2159
938.869	2072
939.1	2130
939.331	2088
939.562	2104
939.793	2118
940.024	2123
940.255	2116
940.486	2075
940.717	2095
940.948	2062
941.179	2046
941.409	2073
941.64	2070
941.871	2080
942.102	2028
942.332	2065
942.563	2071
942.793	2056
943.024	2017
943.254	2046
943.484	2104
943.715	2113
943.945	2118
944.175	2010
944.405	1970
944.636	2048
944.866	2044
945.096	2081
945.326	2007
945.556	2043
945.786	2086
946.016	2035
946.245	1994
946.475	1995
946.705	1977
946.935	1958
947.164	2026
947.394	1979
947.624	1978
947.853	2032
948.083	1985
948.312	1981
948.542	1895
948.771	1877
949	1919
949.23	1932
949.459	1938
949.688	1977
949.917	1950
950.146	1947
950.375	2001
950.604	1919
950.833	1982
951.062	1982
951.291	1922
951.52	1918
951.749	1910
951.978	1940
952.206	1910
952.435	1872
952.664	1940
952.892	1943
953.121	1920
953.349	1922
953.578	1946
953.806	1902
954.035	1853
954.263	1873
954.491	1858
954.719	1885
954.948	1847
955.176	1825
955.404	1750
955.632	1858
955.86	1857
956.088	1855
956.316	1870
956.544	1867
956.772	1815
956.999	1785
957.227	1900
957.455	1802
957.683	1810
957.91	1769
958.138	1767
958.365	1784
958.593	1778
958.82	1705
959.048	1806
959.275	1768
959.502	1782
959.73	1715
959.957	1773
960.184	1840
960.411	1769
960.638	1828
960.865	1754
961.092	1775
961.319	1698
961.546	1772
961.773	1797
962	1733
962.227	1807
962.454	1752
962.68	1742
962.907	1758
963.134	1688
963.36	1714
963.587	1774
963.813	1687
964.04	1714
964.266	1678
964.493	1771
964.719	1735
964.945	1752
965.171	1633
965.398	1715
965.624	1713
965.85	1658
966.076	1646
966.302	1684
966.528	1674
966.754	1685
966.98	1667
967.206	1681
967.431	1608
967.657	1686
967.883	1668
968.109	1655
968.334	1605
968.56	1602
968.785	1583
969.011	1575
969.236	1655
969.462	1587
969.687	1593
969.912	1670
970.138	1657
970.363	1586
970.588	1624
970.813	1613
971.038	1571
971.263	1610
971.488	1599
971.713	1633
971.938	1614
972.163	1534
972.388	1579
972.613	1515
972.838	1562
973.062	1539
973.287	1545
973.512	1477
973.736	1535
973.961	1537
974.185	1512
974.41	1545
974.634	1472
974.858	1462
975.083	1531
975.307	1508
975.531	1475
975.755	1437
975.98	1477
976.204	1417
976.428	1399
976.652	1399
976.876	1391
977.1	1459
977.324	1390
977.547	1479
977.771	1451
977.995	1427
978.219	1375
978.442	1527
978.666	1437
978.89	1441
979.113	1427
979.337	1405
979.56	1385
979.783	1499
980.007	1377
980.23	1434
980.453	1364
980.677	1438
980.9	1428
981.123	1290
981.346	1407
981.569	1418
981.792	1410
982.015	1392
982.238	1356
982.461	1376
982.684	1346
982.907	1339
983.129	1339
983.352	1368
983.575	1358
983.797	1380
984.02	1321
984.242	1350
984.465	1352
984.687	1366
984.91	1389
985.132	1360
985.354	1412
985.577	1352
985.799	1349
986.021	1271
986.243	1297
986.465	1319
986.687	1406
986.909	1414
987.131	1352
987.353	1313
987.575	1351
987.797	1301
988.019	1250
988.241	1313
988.462	1280
988.684	1332
988.906	1378
989.127	1383
989.349	1268
989.57	1312
989.792	1324
990.013	1367
990.234	1354
990.456	1380
990.677	1376
990.898	1318
991.119	1303
991.341	1331
991.562	1296
991.783	1335
992.004	1268
992.225	1251
992.446	1322
992.667	1230
992.887	1321
993.108	1212
993.329	1332
993.55	1280
993.77	1250
993.991	1262
994.212	1275
994.432	1256
994.653	1261
994.873	1299
995.093	1156
995.314	1214
995.534	1294
995.754	1303
995.975	1314
996.195	1238
996.415	1263
996.635	1253
996.855	1287
997.075	1245
997.295	1232
997.515	1242
997.735	1289
997.955	1266
998.174	1260
998.394	1230
998.614	1296
998.834	1247
999.053	1296
999.273	1259
999.492	1322
999.712	1262
999.931	1239
1000.151	1267
1000.37	1232
1000.589	1314
1000.809	1213
1001.028	1348
1001.247	1285
1001.466	1154
1001.685	1332
1001.904	1257
1002.123	1243
1002.342	1249
1002.561	1207
1002.78	1246
1002.999	1316
1003.218	1276
1003.436	1215
1003.655	1294
1003.874	1231
1004.092	1258
1004.311	1294
1004.53	1266
1004.748	1327
1004.966	1261
1005.185	1327
1005.403	1311
1005.622	1319
1005.84	1345
1006.058	1280
1006.276	1278
1006.494	1795
1006.712	1288
1006.931	1380
1007.149	1291
1007.367	1265
1007.584	1324
1007.802	1368
1008.02	1344
1008.238	1425
1008.456	1412
1008.673	1308
1008.891	1403
1009.109	1377
1009.326	1472
1009.544	1556
1009.761	1460
1009.979	1574
1010.196	1595
1010.413	1750
1010.631	1782
1010.848	1895
1011.065	1873
1011.282	1864
1011.5	1777
1011.717	1858
1011.934	1813
1012.151	1853
1012.368	1860
1012.585	1793
1012.801	1863
1013.018	1804
1013.235	1774
1013.452	1824
1013.669	1859
1013.885	1834
1014.102	1866
1014.318	1850
1014.535	1799
1014.751	1830
1014.968	1833
1015.184	1888
1015.401	1772
1015.617	1772
1015.833	1758
1016.049	1768
1016.266	1725
1016.482	1751
1016.698	1680
1016.914	1727
1017.13	1679
1017.346	1662
1017.562	1750
1017.778	1679
1017.993	1641
1018.209	1721
1018.425	1690
1018.641	1643
1018.856	1603
1019.072	1677
1019.288	1692
1019.503	1646
1019.719	1576
1019.934	1606
1020.149	1637
1020.365	1606
1020.58	1550
1020.795	1590
1021.011	1512
1021.226	1464
1021.441	1485
1021.656	1378
1021.871	1321
1022.086	1321
1022.301	1305
1022.516	1288
1022.731	1356
1022.946	1238
1023.16	1248
1023.375	1196
1023.59	1181
1023.804	1131
1024.019	1250
1024.234	1099
1024.448	1134
1024.663	1067
1024.877	1057
1025.092	1083
1025.306	1058
1025.52	978
1025.734	1067
1025.949	993
1026.163	950
1026.377	913
1026.591	956
1026.805	852
1027.019	864
1027.233	819
1027.447	789
1027.661	884
1027.875	810
1028.088	839
1028.302	763
1028.516	735
1028.73	743
1028.943	719
1029.157	671
1029.37	632
1029.584	-3
1029.797	-3
1030.011	-5
1030.224	-1
