Data from QEP037381__42__11-27-55-594.txt Node

Date: Wed Dec 21 11:27:55 EST 2022
User: dcclab
Spectrometer: QEP03738
Trigger mode: 4
Integration Time (sec): 1.000000E1
Scans to average: 1
Electric dark correction enabled: true
Nonlinearity correction enabled: false
Boxcar width: 0
XAxis mode: Wavelengths
Number of Pixels in Spectrum: 1044
>>>>>Begin Spectral Data<<<<<
784.041	12
784.3	3
784.558	-1
784.817	-3
785.075	39528
785.334	8175
785.592	4298
785.851	3097
786.109	2341
786.368	1848
786.626	1508
786.884	1291
787.143	1103
787.401	924
787.659	877
787.917	760
788.175	749
788.433	650
788.691	574
788.949	569
789.207	563
789.465	490
789.723	472
789.98	450
790.238	485
790.496	456
790.753	455
791.011	500
791.268	450
791.526	429
791.783	449
792.041	436
792.298	352
792.556	427
792.813	411
793.07	378
793.327	387
793.584	447
793.841	381
794.099	416
794.356	463
794.613	369
794.869	416
795.126	356
795.383	346
795.64	380
795.897	333
796.153	392
796.41	370
796.667	373
796.923	369
797.18	367
797.436	396
797.693	366
797.949	424
798.206	440
798.462	349
798.718	408
798.974	392
799.231	419
799.487	402
799.743	407
799.999	423
800.255	418
800.511	411
800.767	442
801.023	433
801.279	455
801.534	482
801.79	508
802.046	509
802.302	609
802.557	635
802.813	756
803.068	877
803.324	1187
803.579	1538
803.835	2039
804.09	2792
804.345	3555
804.601	4439
804.856	5362
805.111	6173
805.366	6776
805.621	7312
805.876	7616
806.131	7836
806.386	8021
806.641	8143
806.896	8231
807.151	8457
807.406	8514
807.661	8747
807.915	8911
808.17	9018
808.425	9110
808.679	9088
808.934	9339
809.188	9327
809.443	9451
809.697	9588
809.951	9641
810.206	9763
810.46	9781
810.714	9878
810.968	9964
811.223	10044
811.477	10111
811.731	10199
811.985	10238
812.239	10203
812.493	10261
812.747	10382
813	10339
813.254	10458
813.508	10509
813.762	10519
814.015	10571
814.269	10633
814.522	10757
814.776	10893
815.03	11008
815.283	11179
815.536	11318
815.79	11508
816.043	11625
816.296	11764
816.55	11956
816.803	12072
817.056	12288
817.309	12363
817.562	12428
817.815	12563
818.068	12687
818.321	12761
818.574	12917
818.827	13054
819.079	13244
819.332	13543
819.585	13632
819.838	13816
820.09	13888
820.343	13953
820.595	13890
820.848	14066
821.1	14151
821.353	14028
821.605	14073
821.857	14056
822.11	13946
822.362	13942
822.614	13930
822.866	13888
823.118	13901
823.37	14028
823.622	14017
823.874	14107
824.126	14110
824.378	14092
824.63	14178
824.882	14162
825.134	14167
825.385	14193
825.637	14087
825.888	14084
826.14	14041
826.392	13996
826.643	13858
826.895	13991
827.146	13808
827.397	13662
827.649	13748
827.9	13762
828.151	13739
828.402	13735
828.653	13760
828.905	13823
829.156	13939
829.407	13821
829.658	13881
829.909	14022
830.159	13970
830.41	13897
830.661	13780
830.912	13635
831.162	13615
831.413	13582
831.664	13628
831.914	13543
832.165	13530
832.415	13643
832.666	13613
832.916	13617
833.167	13619
833.417	13689
833.667	13521
833.917	13476
834.168	13456
834.418	13426
834.668	13340
834.918	13188
835.168	13254
835.418	13131
835.668	13070
835.918	13063
836.167	13078
836.417	13096
836.667	12994
836.917	13068
837.166	12950
837.416	13065
837.666	13053
837.915	13030
838.165	13068
838.414	12961
838.663	12910
838.913	13061
839.162	12987
839.411	12918
839.661	12827
839.91	12864
840.159	12825
840.408	12849
840.657	12880
840.906	12803
841.155	12831
841.404	12771
841.653	12785
841.902	12838
842.15	12950
842.399	12896
842.648	12926
842.897	12897
843.145	12691
843.394	12718
843.642	12512
843.891	12521
844.139	12419
844.388	12330
844.636	12139
844.884	12281
845.133	12312
845.381	12244
845.629	12231
845.877	12221
846.125	12169
846.373	12203
846.621	12205
846.869	12107
847.117	12017
847.365	11978
847.613	11878
847.861	11935
848.108	11902
848.356	11837
848.604	11848
848.851	11882
849.099	11860
849.346	11944
849.594	11941
849.841	12069
850.089	12139
850.336	12178
850.583	12187
850.831	12177
851.078	12168
851.325	12065
851.572	11989
851.819	11828
852.066	11586
852.313	11440
852.56	11391
852.807	11322
853.054	11245
853.301	11222
853.548	11260
853.794	11440
854.041	11400
854.288	11444
854.534	11651
854.781	11533
855.028	11414
855.274	11527
855.52	11446
855.767	11421
856.013	11470
856.26	11703
856.506	11259
856.752	11330
856.998	11358
857.244	11378
857.49	11369
857.736	11396
857.982	11384
858.228	11299
858.474	11196
858.72	11153
858.966	11059
859.212	10935
859.458	10793
859.703	10771
859.949	10547
860.195	10700
860.44	10510
860.686	10525
860.931	10564
861.177	10364
861.422	10382
861.667	10267
861.913	10330
862.158	10312
862.403	10291
862.648	10341
862.893	10372
863.138	10383
863.384	10265
863.629	10353
863.873	10301
864.118	10169
864.363	10181
864.608	10182
864.853	10116
865.098	10048
865.342	10059
865.587	9952
865.832	10117
866.076	9996
866.321	9859
866.565	10004
866.81	9795
867.054	9792
867.298	9838
867.543	9727
867.787	9795
868.031	9788
868.275	9777
868.519	9675
868.764	9704
869.008	9726
869.252	9715
869.496	9545
869.739	9612
869.983	9658
870.227	9694
870.471	9639
870.715	9724
870.958	9755
871.202	9755
871.446	9808
871.689	9749
871.933	9749
872.176	9796
872.42	9749
872.663	9701
872.906	9848
873.15	9744
873.393	9719
873.636	9753
873.879	9658
874.122	9533
874.366	9372
874.609	9335
874.852	9160
875.095	9065
875.337	9083
875.58	8928
875.823	9002
876.066	9010
876.309	8956
876.551	8814
876.794	8769
877.037	8847
877.279	8757
877.522	8723
877.764	8760
878.007	8709
878.249	8748
878.491	8692
878.734	8727
878.976	8673
879.218	8575
879.46	8644
879.702	8602
879.945	8483
880.187	8424
880.429	8298
880.671	8272
880.912	8280
881.154	8265
881.396	8116
881.638	8281
881.88	8204
882.121	8178
882.363	8223
882.605	8184
882.846	8089
883.088	8149
883.329	8152
883.571	8266
883.812	8393
884.053	8643
884.295	8800
884.536	8919
884.777	8777
885.018	8670
885.259	8627
885.5	8552
885.742	8815
885.982	8522
886.223	8467
886.464	8341
886.705	8201
886.946	8132
887.187	7932
887.428	7915
887.668	7776
887.909	7679
888.15	7539
888.39	7530
888.631	7544
888.871	7430
889.111	7448
889.352	7335
889.592	7251
889.833	7240
890.073	7173
890.313	7184
890.553	7052
890.793	7019
891.033	6970
891.273	6962
891.513	6951
891.753	6979
891.993	6913
892.233	6942
892.473	6989
892.713	6924
892.952	6910
893.192	6950
893.432	6951
893.671	6976
893.911	6867
894.15	6888
894.39	6730
894.629	6789
894.869	6769
895.108	6673
895.347	6665
895.587	6676
895.826	6644
896.065	6634
896.304	6634
896.543	6664
896.782	6596
897.021	6611
897.26	6557
897.499	6628
897.738	6649
897.977	6559
898.216	6499
898.454	6478
898.693	6366
898.932	6431
899.17	6334
899.409	6335
899.647	6283
899.886	6366
900.124	6389
900.363	6384
900.601	6384
900.839	6429
901.078	6380
901.316	6492
901.554	6462
901.792	6546
902.03	6479
902.268	6483
902.506	6480
902.744	6427
902.982	6420
903.22	6281
903.458	6159
903.695	6079
903.933	5996
904.171	5817
904.409	5800
904.646	5723
904.884	5643
905.121	5553
905.359	5543
905.596	5510
905.833	5443
906.071	5387
906.308	5380
906.545	5368
906.783	5292
907.02	5290
907.257	5292
907.494	5308
907.731	5330
907.968	5253
908.205	5161
908.442	5160
908.679	5122
908.915	5114
909.152	5062
909.389	4975
909.626	4981
909.862	4911
910.099	4955
910.335	4944
910.572	4872
910.808	4854
911.045	4835
911.281	4834
911.518	4823
911.754	4746
911.99	4766
912.226	4727
912.463	4642
912.699	4635
912.935	4619
913.171	4577
913.407	4549
913.643	4523
913.879	4481
914.114	4443
914.35	4400
914.586	4370
914.822	4341
915.057	4422
915.293	4249
915.529	4230
915.764	4292
916	4273
916.235	4265
916.471	4251
916.706	4184
916.941	4191
917.177	4214
917.412	4223
917.647	4187
917.882	4181
918.117	4211
918.352	4210
918.588	4203
918.823	4074
919.057	4082
919.292	4001
919.527	4084
919.762	3958
919.997	4007
920.232	3878
920.466	3867
920.701	3784
920.935	3810
921.17	3777
921.405	3742
921.639	3780
921.873	3728
922.108	3724
922.342	3745
922.576	3664
922.811	3668
923.045	3674
923.279	3733
923.513	3566
923.747	3653
923.981	3632
924.215	3545
924.449	3577
924.683	3518
924.917	3506
925.151	3515
925.385	3540
925.618	3514
925.852	3475
926.086	3436
926.319	3496
926.553	3468
926.786	3449
927.02	3469
927.253	3445
927.486	3486
927.72	3418
927.953	3455
928.186	3430
928.42	3424
928.653	3411
928.886	3294
929.119	3377
929.352	3326
929.585	3337
929.818	3290
930.051	3308
930.284	3280
930.516	3167
930.749	3182
930.982	3223
931.215	3215
931.447	3119
931.68	3151
931.912	3103
932.145	3133
932.377	3144
932.61	3257
932.842	3094
933.074	3128
933.307	3100
933.539	3185
933.771	3157
934.003	3086
934.236	3184
934.468	3180
934.7	3111
934.932	3155
935.164	3099
935.395	3081
935.627	3057
935.859	3086
936.091	3029
936.323	3040
936.554	3105
936.786	3004
937.017	2972
937.249	3026
937.481	2936
937.712	2998
937.943	2984
938.175	2950
938.406	2928
938.637	3050
938.869	2934
939.1	2958
939.331	2907
939.562	2957
939.793	2928
940.024	2961
940.255	2943
940.486	2872
940.717	2895
940.948	2853
941.179	2797
941.409	2850
941.64	2808
941.871	2830
942.102	2819
942.332	2833
942.563	2874
942.793	2829
943.024	2761
943.254	2816
943.484	2846
943.715	2866
943.945	2805
944.175	2756
944.405	2758
944.636	2739
944.866	2827
945.096	2805
945.326	2754
945.556	2734
945.786	2822
946.016	2734
946.245	2675
946.475	2718
946.705	2684
946.935	2686
947.164	2704
947.394	2632
947.624	2613
947.853	2630
948.083	2641
948.312	2615
948.542	2562
948.771	2543
949	2563
949.23	2553
949.459	2581
949.688	2614
949.917	2572
950.146	2575
950.375	2628
950.604	2536
950.833	2623
951.062	2585
951.291	2529
951.52	2496
951.749	2554
951.978	2489
952.206	2491
952.435	2438
952.664	2507
952.892	2499
953.121	2465
953.349	2498
953.578	2465
953.806	2441
954.035	2408
954.263	2432
954.491	2394
954.719	2415
954.948	2387
955.176	2373
955.404	2306
955.632	2374
955.86	2360
956.088	2369
956.316	2369
956.544	2391
956.772	2290
956.999	2283
957.227	2374
957.455	2274
957.683	2282
957.91	2216
958.138	2267
958.365	2225
958.593	2208
958.82	2192
959.048	2264
959.275	2220
959.502	2205
959.73	2178
959.957	2215
960.184	2220
960.411	2181
960.638	2249
960.865	2157
961.092	2203
961.319	2118
961.546	2209
961.773	2227
962	2150
962.227	2229
962.454	2180
962.68	2135
962.907	2171
963.134	2136
963.36	2119
963.587	2194
963.813	2081
964.04	2136
964.266	2059
964.493	2144
964.719	2100
964.945	2087
965.171	1980
965.398	2055
965.624	2079
965.85	2002
966.076	1981
966.302	2033
966.528	1990
966.754	2048
966.98	2000
967.206	1995
967.431	1946
967.657	2034
967.883	1977
968.109	1983
968.334	1937
968.56	1936
968.785	1932
969.011	1899
969.236	1953
969.462	1923
969.687	1949
969.912	1960
970.138	1947
970.363	1884
970.588	1893
970.813	1871
971.038	1886
971.263	1887
971.488	1889
971.713	1938
971.938	1930
972.163	1820
972.388	1831
972.613	1812
972.838	1842
973.062	1815
973.287	1839
973.512	1741
973.736	1810
973.961	1786
974.185	1745
974.41	1785
974.634	1720
974.858	1747
975.083	1772
975.307	1792
975.531	1718
975.755	1671
975.98	1701
976.204	1639
976.428	1649
976.652	1660
976.876	1653
977.1	1679
977.324	1633
977.547	1685
977.771	1660
977.995	1648
978.219	1594
978.442	1699
978.666	1647
978.89	1641
979.113	1644
979.337	1626
979.56	1584
979.783	1686
980.007	1589
980.23	1631
980.453	1571
980.677	1615
980.9	1593
981.123	1525
981.346	1590
981.569	1570
981.792	1589
982.015	1558
982.238	1524
982.461	1550
982.684	1526
982.907	1510
983.129	1496
983.352	1543
983.575	1532
983.797	1520
984.02	1478
984.242	1482
984.465	1468
984.687	1515
984.91	1534
985.132	1501
985.354	1527
985.577	1492
985.799	1490
986.021	1411
986.243	1444
986.465	1452
986.687	1509
986.909	1539
987.131	1470
987.353	1424
987.575	1468
987.797	1401
988.019	1354
988.241	1446
988.462	1399
988.684	1442
988.906	1476
989.127	1507
989.349	1374
989.57	1404
989.792	1447
990.013	1456
990.234	1462
990.456	1481
990.677	1453
990.898	1401
991.119	1408
991.341	1427
991.562	1397
991.783	1421
992.004	1339
992.225	1332
992.446	1376
992.667	1312
992.887	1375
993.108	1290
993.329	1422
993.55	1351
993.77	1312
993.991	1290
994.212	1330
994.432	1344
994.653	1342
994.873	1343
995.093	1229
995.314	1258
995.534	1338
995.754	1356
995.975	1391
996.195	1282
996.415	1336
996.635	1303
996.855	1315
997.075	1270
997.295	1285
997.515	1275
997.735	1331
997.955	1285
998.174	1282
998.394	1270
998.614	1307
998.834	1265
999.053	1339
999.273	1321
999.492	1339
999.712	1289
999.931	1251
1000.151	1290
1000.37	1293
1000.589	1337
1000.809	1268
1001.028	1380
1001.247	1320
1001.466	1197
1001.685	1372
1001.904	1248
1002.123	1265
1002.342	1284
1002.561	1235
1002.78	1256
1002.999	1321
1003.218	1268
1003.436	1259
1003.655	1296
1003.874	1238
1004.092	1270
1004.311	1293
1004.53	1256
1004.748	1315
1004.966	1252
1005.185	1305
1005.403	1304
1005.622	1273
1005.84	1356
1006.058	1227
1006.276	1277
1006.494	1768
1006.712	1294
1006.931	1358
1007.149	1256
1007.367	1247
1007.584	1290
1007.802	1331
1008.02	1277
1008.238	1369
1008.456	1366
1008.673	1230
1008.891	1348
1009.109	1310
1009.326	1338
1009.544	1429
1009.761	1343
1009.979	1446
1010.196	1448
1010.413	1567
1010.631	1599
1010.848	1627
1011.065	1628
1011.282	1552
1011.5	1518
1011.717	1599
1011.934	1536
1012.151	1589
1012.368	1581
1012.585	1518
1012.801	1552
1013.018	1520
1013.235	1526
1013.452	1535
1013.669	1518
1013.885	1519
1014.102	1567
1014.318	1538
1014.535	1478
1014.751	1510
1014.968	1492
1015.184	1524
1015.401	1450
1015.617	1464
1015.833	1414
1016.049	1414
1016.266	1414
1016.482	1421
1016.698	1368
1016.914	1407
1017.13	1338
1017.346	1333
1017.562	1416
1017.778	1311
1017.993	1299
1018.209	1362
1018.425	1329
1018.641	1282
1018.856	1244
1019.072	1294
1019.288	1326
1019.503	1311
1019.719	1233
1019.934	1254
1020.149	1291
1020.365	1243
1020.58	1178
1020.795	1247
1021.011	1177
1021.226	1191
1021.441	1176
1021.656	1098
1021.871	1075
1022.086	1092
1022.301	1065
1022.516	1069
1022.731	1104
1022.946	1036
1023.16	995
1023.375	975
1023.59	959
1023.804	918
1024.019	1017
1024.234	929
1024.448	945
1024.663	850
1024.877	885
1025.092	888
1025.306	888
1025.52	814
1025.734	897
1025.949	820
1026.163	804
1026.377	743
1026.591	812
1026.805	716
1027.019	737
1027.233	681
1027.447	652
1027.661	740
1027.875	686
1028.088	701
1028.302	627
1028.516	617
1028.73	618
1028.943	619
1029.157	584
1029.37	538
1029.584	-1
1029.797	-4
1030.011	-2
1030.224	-4
