Data from QEP037381__77__14-52-45-876.txt Node

Date: Wed Dec 21 14:52:45 EST 2022
User: dcclab
Spectrometer: QEP03738
Trigger mode: 4
Integration Time (sec): 1.000000E1
Scans to average: 1
Electric dark correction enabled: true
Nonlinearity correction enabled: false
Boxcar width: 0
XAxis mode: Wavelengths
Number of Pixels in Spectrum: 1044
>>>>>Begin Spectral Data<<<<<
784.041	11
784.3	0
784.558	-2
784.817	-5
785.075	108710
785.334	18507
785.592	8566
785.851	5831
786.109	4388
786.368	3418
786.626	2721
786.884	2266
787.143	1894
787.401	1562
787.659	1419
787.917	1208
788.175	1091
788.433	964
788.691	866
788.949	819
789.207	764
789.465	672
789.723	654
789.98	596
790.238	634
790.496	618
790.753	557
791.011	626
791.268	542
791.526	540
791.783	550
792.041	526
792.298	442
792.556	530
792.813	499
793.07	476
793.327	461
793.584	530
793.841	464
794.099	493
794.356	565
794.613	454
794.869	489
795.126	443
795.383	438
795.64	447
795.897	409
796.153	454
796.41	451
796.667	439
796.923	451
797.18	447
797.436	477
797.693	427
797.949	493
798.206	532
798.462	429
798.718	487
798.974	462
799.231	520
799.487	508
799.743	517
799.999	542
800.255	554
800.511	531
800.767	567
801.023	599
801.279	620
801.534	669
801.79	731
802.046	770
802.302	946
802.557	1095
802.813	1378
803.068	1756
803.324	2430
803.579	3333
803.835	4665
804.09	6450
804.345	8464
804.601	10476
804.856	12714
805.111	14650
805.366	16237
805.621	17373
805.876	18208
806.131	18732
806.386	19028
806.641	19561
806.896	19737
807.151	20084
807.406	20416
807.661	20824
807.915	21213
808.17	21516
808.425	21701
808.679	21769
808.934	22111
809.188	22250
809.443	22504
809.697	22794
809.951	22944
810.206	23220
810.46	23332
810.714	23575
810.968	23770
811.223	23964
811.477	24204
811.731	24363
811.985	24460
812.239	24584
812.493	24801
812.747	24794
813	24860
813.254	24908
813.508	25163
813.762	25258
814.015	25260
814.269	25429
814.522	25795
814.776	26060
815.03	26387
815.283	26809
815.536	27050
815.79	27700
816.043	27979
816.296	28452
816.55	28674
816.803	29094
817.056	29465
817.309	29679
817.562	29868
817.815	30224
818.068	30381
818.321	30791
818.574	31070
818.827	31525
819.079	31786
819.332	32480
819.585	32904
819.838	33316
820.09	33351
820.343	33682
820.595	33827
820.848	34075
821.1	34187
821.353	34222
821.605	34173
821.857	34170
822.11	34055
822.362	34037
822.614	33837
822.866	33835
823.118	33759
823.37	34061
823.622	33990
823.874	34145
824.126	34251
824.378	34379
824.63	34469
824.882	34513
825.134	34419
825.385	34371
825.637	34337
825.888	34236
826.14	34120
826.392	34058
826.643	33825
826.895	33960
827.146	33755
827.397	33690
827.649	33771
827.9	33489
828.151	33730
828.402	33699
828.653	33930
828.905	33935
829.156	34022
829.407	34086
829.658	34127
829.909	34102
830.159	34246
830.41	34013
830.661	33821
830.912	33589
831.162	33445
831.413	33526
831.664	33463
831.914	33445
832.165	33375
832.415	33436
832.666	33295
832.916	33461
833.167	33439
833.417	33234
833.667	33196
833.917	33199
834.168	33125
834.418	33191
834.668	32897
834.918	32558
835.168	32655
835.418	32581
835.668	32398
835.918	32335
836.167	32317
836.417	32127
836.667	32230
836.917	32215
837.166	32196
837.416	32123
837.666	32188
837.915	32194
838.165	32084
838.414	32048
838.663	31821
838.913	31913
839.162	31724
839.411	31814
839.661	31639
839.91	31572
840.159	31568
840.408	31561
840.657	31599
840.906	31669
841.155	31616
841.404	31490
841.653	31602
841.902	31621
842.15	31833
842.399	31745
842.648	31739
842.897	31549
843.145	31320
843.394	31184
843.642	30983
843.891	30804
844.139	30670
844.388	30520
844.636	30402
844.884	30475
845.133	30436
845.381	30353
845.629	30430
845.877	30299
846.125	30221
846.373	30207
846.621	30216
846.869	30149
847.117	29996
847.365	29760
847.613	29679
847.861	29501
848.108	29494
848.356	29522
848.604	29389
848.851	29441
849.099	29536
849.346	29525
849.594	29707
849.841	29798
850.089	29851
850.336	30002
850.583	29956
850.831	29876
851.078	29617
851.325	29646
851.572	29699
851.819	29207
852.066	28820
852.313	28445
852.56	28128
852.807	28086
853.054	27907
853.301	27975
853.548	28133
853.794	28227
854.041	28153
854.288	28279
854.534	28596
854.781	28449
855.028	28392
855.274	28426
855.52	28165
855.767	28079
856.013	28129
856.26	28467
856.506	27803
856.752	27926
856.998	27954
857.244	27942
857.49	28125
857.736	28248
857.982	28047
858.228	27977
858.474	27874
858.72	27588
858.966	27377
859.212	27034
859.458	26946
859.703	26381
859.949	26313
860.195	26129
860.44	26077
860.686	25933
860.931	25945
861.177	25795
861.422	25580
861.667	25560
861.913	25509
862.158	25554
862.403	25566
862.648	25658
862.893	25669
863.138	25621
863.384	25559
863.629	25544
863.873	25545
864.118	25496
864.363	25348
864.608	25252
864.853	25234
865.098	25029
865.342	24958
865.587	24792
865.832	24887
866.076	24797
866.321	24771
866.565	24674
866.81	24553
867.054	24532
867.298	24330
867.543	24307
867.787	24442
868.031	24209
868.275	24237
868.519	24157
868.764	24045
869.008	24084
869.252	24012
869.496	23947
869.739	23910
869.983	23885
870.227	23962
870.471	23976
870.715	23915
870.958	23984
871.202	24040
871.446	24054
871.689	24094
871.933	24091
872.176	24013
872.42	23930
872.663	23869
872.906	23902
873.15	23878
873.393	23845
873.636	23729
873.879	23449
874.122	23365
874.366	22910
874.609	22712
874.852	22499
875.095	22372
875.337	22336
875.58	22217
875.823	22194
876.066	22171
876.309	22081
876.551	21878
876.794	21807
877.037	21795
877.279	21614
877.522	21617
877.764	21703
878.007	21598
878.249	21493
878.491	21441
878.734	21455
878.976	21548
879.218	21304
879.46	21220
879.702	21073
879.945	20778
880.187	20644
880.429	20524
880.671	20446
880.912	20254
881.154	20295
881.396	20245
881.638	20222
881.88	20239
882.121	20215
882.363	20157
882.605	20147
882.846	20036
883.088	20089
883.329	20018
883.571	20162
883.812	20280
884.053	20638
884.295	21116
884.536	21421
884.777	21166
885.018	20976
885.259	20928
885.5	20765
885.742	21042
885.982	20605
886.223	20376
886.464	20355
886.705	20178
886.946	19912
887.187	19479
887.428	19359
887.668	19032
887.909	18882
888.15	18509
888.39	18478
888.631	18346
888.871	18116
889.111	18108
889.352	17908
889.592	17711
889.833	17626
890.073	17540
890.313	17379
890.553	17166
890.793	17166
891.033	17165
891.273	16971
891.513	16946
891.753	17034
891.993	16826
892.233	16868
892.473	16881
892.713	16934
892.952	16911
893.192	16938
893.432	16890
893.671	16823
893.911	16678
894.15	16599
894.39	16492
894.629	16394
894.869	16345
895.108	16118
895.347	16169
895.587	16124
895.826	16012
896.065	15981
896.304	15980
896.543	15960
896.782	15885
897.021	15858
897.26	15794
897.499	15811
897.738	15796
897.977	15618
898.216	15457
898.454	15292
898.693	15322
898.932	15215
899.17	15194
899.409	15069
899.647	15006
899.886	14970
900.124	15088
900.363	14979
900.601	15035
900.839	15110
901.078	15113
901.316	15250
901.554	15190
901.792	15306
902.03	15357
902.268	15392
902.506	15259
902.744	15180
902.982	15143
903.22	14811
903.458	14570
903.695	14403
903.933	14229
904.171	13964
904.409	13788
904.646	13600
904.884	13474
905.121	13339
905.359	13189
905.596	12969
905.833	12952
906.071	12881
906.308	12966
906.545	12815
906.783	12651
907.02	12720
907.257	12643
907.494	12595
907.731	12648
907.968	12579
908.205	12452
908.442	12413
908.679	12319
908.915	12147
909.152	12176
909.389	11999
909.626	11938
909.862	11876
910.099	11840
910.335	11785
910.572	11676
910.808	11638
911.045	11540
911.281	11507
911.518	11516
911.754	11459
911.99	11304
912.226	11250
912.463	11161
912.699	11089
912.935	10984
913.171	10986
913.407	10851
913.643	10816
913.879	10642
914.114	10603
914.35	10481
914.586	10404
914.822	10282
915.057	10335
915.293	10148
915.529	10066
915.764	10173
916	10023
916.235	10053
916.471	10050
916.706	10021
916.941	9958
917.177	9927
917.412	9992
917.647	9894
917.882	9862
918.117	9862
918.352	9821
918.588	9757
918.823	9682
919.057	9623
919.292	9456
919.527	9454
919.762	9262
919.997	9166
920.232	9182
920.466	9057
920.701	8874
920.935	8916
921.17	8889
921.405	8794
921.639	8833
921.873	8730
922.108	8735
922.342	8739
922.576	8689
922.811	8649
923.045	8710
923.279	8624
923.513	8424
923.747	8503
923.981	8519
924.215	8315
924.449	8249
924.683	8203
924.917	8148
925.151	8127
925.385	8129
925.618	8088
925.852	8091
926.086	7994
926.319	8087
926.553	7994
926.786	8085
927.02	7978
927.253	8005
927.486	7950
927.72	7900
927.953	7921
928.186	7923
928.42	7939
928.653	7805
928.886	7801
929.119	7767
929.352	7747
929.585	7714
929.818	7588
930.051	7570
930.284	7481
930.516	7378
930.749	7306
930.982	7434
931.215	7326
931.447	7188
931.68	7171
931.912	7223
932.145	7230
932.377	7240
932.61	7297
932.842	7070
933.074	7133
933.307	7122
933.539	7143
933.771	7188
934.003	7134
934.236	7195
934.468	7177
934.7	7112
934.932	7043
935.164	7026
935.395	6973
935.627	7003
935.859	6944
936.091	6905
936.323	6967
936.554	6957
936.786	6861
937.017	6777
937.249	6810
937.481	6733
937.712	6843
937.943	6725
938.175	6699
938.406	6704
938.637	6772
938.869	6674
939.1	6667
939.331	6682
939.562	6661
939.793	6633
940.024	6632
940.255	6594
940.486	6510
940.717	6549
940.948	6551
941.179	6480
941.409	6500
941.64	6420
941.871	6377
942.102	6355
942.332	6354
942.563	6359
942.793	6370
943.024	6283
943.254	6324
943.484	6411
943.715	6384
943.945	6361
944.175	6326
944.405	6220
944.636	6229
944.866	6225
945.096	6299
945.326	6200
945.556	6265
945.786	6205
946.016	6109
946.245	6079
946.475	6046
946.705	6019
946.935	5970
947.164	5971
947.394	5874
947.624	5846
947.853	5948
948.083	5886
948.312	5846
948.542	5747
948.771	5764
949	5691
949.23	5761
949.459	5757
949.688	5792
949.917	5717
950.146	5724
950.375	5794
950.604	5639
950.833	5761
951.062	5692
951.291	5659
951.52	5639
951.749	5627
951.978	5579
952.206	5632
952.435	5577
952.664	5527
952.892	5503
953.121	5489
953.349	5526
953.578	5484
953.806	5428
954.035	5383
954.263	5415
954.491	5348
954.719	5340
954.948	5281
955.176	5282
955.404	5177
955.632	5270
955.86	5152
956.088	5148
956.316	5196
956.544	5193
956.772	5130
956.999	5045
957.227	5143
957.455	5006
957.683	5043
957.91	4932
958.138	4927
958.365	4915
958.593	4864
958.82	4837
959.048	4938
959.275	4811
959.502	4807
959.73	4762
959.957	4808
960.184	4844
960.411	4786
960.638	4781
960.865	4732
961.092	4786
961.319	4699
961.546	4738
961.773	4800
962	4726
962.227	4748
962.454	4741
962.68	4667
962.907	4673
963.134	4620
963.36	4598
963.587	4605
963.813	4528
964.04	4550
964.266	4484
964.493	4531
964.719	4484
964.945	4432
965.171	4345
965.398	4399
965.624	4420
965.85	4318
966.076	4300
966.302	4337
966.528	4271
966.754	4308
966.98	4256
967.206	4257
967.431	4178
967.657	4232
967.883	4200
968.109	4224
968.334	4083
968.56	4111
968.785	4111
969.011	4090
969.236	4158
969.462	4073
969.687	4105
969.912	4089
970.138	4146
970.363	3972
970.588	4015
970.813	4002
971.038	3948
971.263	3973
971.488	3952
971.713	3987
971.938	4004
972.163	3858
972.388	3860
972.613	3802
972.838	3845
973.062	3810
973.287	3813
973.512	3776
973.736	3788
973.961	3761
974.185	3731
974.41	3756
974.634	3588
974.858	3625
975.083	3675
975.307	3615
975.531	3590
975.755	3548
975.98	3558
976.204	3442
976.428	3435
976.652	3482
976.876	3453
977.1	3438
977.324	3421
977.547	3451
977.771	3427
977.995	3393
978.219	3328
978.442	3460
978.666	3368
978.89	3375
979.113	3378
979.337	3339
979.56	3286
979.783	3383
980.007	3268
980.23	3291
980.453	3255
980.677	3269
980.9	3262
981.123	3131
981.346	3210
981.569	3190
981.792	3220
982.015	3161
982.238	3102
982.461	3143
982.684	3067
982.907	3012
983.129	2997
983.352	3101
983.575	3047
983.797	3044
984.02	2977
984.242	2969
984.465	2970
984.687	3005
984.91	3017
985.132	2957
985.354	2987
985.577	2893
985.799	2931
986.021	2830
986.243	2884
986.465	2891
986.687	2914
986.909	2940
987.131	2870
987.353	2827
987.575	2823
987.797	2798
988.019	2747
988.241	2789
988.462	2719
988.684	2818
988.906	2829
989.127	2812
989.349	2728
989.57	2753
989.792	2766
990.013	2798
990.234	2779
990.456	2809
990.677	2792
990.898	2677
991.119	2697
991.341	2687
991.562	2666
991.783	2676
992.004	2610
992.225	2583
992.446	2626
992.667	2538
992.887	2607
993.108	2478
993.329	2586
993.55	2562
993.77	2503
993.991	2474
994.212	2501
994.432	2458
994.653	2449
994.873	2469
995.093	2378
995.314	2392
995.534	2439
995.754	2486
995.975	2473
996.195	2362
996.415	2446
996.635	2407
996.855	2375
997.075	2369
997.295	2359
997.515	2369
997.735	2395
997.955	2374
998.174	2363
998.394	2395
998.614	2389
998.834	2309
999.053	2403
999.273	2355
999.492	2396
999.712	2302
999.931	2248
1000.151	2284
1000.37	2248
1000.589	2349
1000.809	2215
1001.028	2368
1001.247	2280
1001.466	2170
1001.685	2308
1001.904	2197
1002.123	2171
1002.342	2216
1002.561	2110
1002.78	2148
1002.999	2239
1003.218	2150
1003.436	2119
1003.655	2189
1003.874	2095
1004.092	2116
1004.311	2181
1004.53	2095
1004.748	2163
1004.966	2088
1005.185	2154
1005.403	2122
1005.622	2124
1005.84	2171
1006.058	2067
1006.276	2096
1006.494	2594
1006.712	2080
1006.931	2141
1007.149	2070
1007.367	2068
1007.584	2094
1007.802	2156
1008.02	2112
1008.238	2187
1008.456	2186
1008.673	2079
1008.891	2191
1009.109	2175
1009.326	2217
1009.544	2306
1009.761	2266
1009.979	2387
1010.196	2445
1010.413	2562
1010.631	2649
1010.848	2687
1011.065	2734
1011.282	2698
1011.5	2667
1011.717	2699
1011.934	2632
1012.151	2696
1012.368	2640
1012.585	2615
1012.801	2625
1013.018	2626
1013.235	2582
1013.452	2615
1013.669	2628
1013.885	2626
1014.102	2687
1014.318	2616
1014.535	2613
1014.751	2614
1014.968	2594
1015.184	2591
1015.401	2507
1015.617	2525
1015.833	2435
1016.049	2470
1016.266	2411
1016.482	2426
1016.698	2318
1016.914	2403
1017.13	2297
1017.346	2296
1017.562	2315
1017.778	2227
1017.993	2214
1018.209	2274
1018.425	2281
1018.641	2215
1018.856	2182
1019.072	2244
1019.288	2258
1019.503	2186
1019.719	2139
1019.934	2120
1020.149	2181
1020.365	2102
1020.58	2045
1020.795	2093
1021.011	2021
1021.226	1922
1021.441	1966
1021.656	1833
1021.871	1754
1022.086	1726
1022.301	1724
1022.516	1700
1022.731	1762
1022.946	1671
1023.16	1626
1023.375	1579
1023.59	1565
1023.804	1514
1024.019	1571
1024.234	1435
1024.448	1447
1024.663	1365
1024.877	1378
1025.092	1391
1025.306	1366
1025.52	1265
1025.734	1347
1025.949	1249
1026.163	1220
1026.377	1150
1026.591	1221
1026.805	1108
1027.019	1092
1027.233	1044
1027.447	1018
1027.661	1107
1027.875	1048
1028.088	1037
1028.302	928
1028.516	934
1028.73	918
1028.943	917
1029.157	838
1029.37	779
1029.584	1
1029.797	-3
1030.011	-1
1030.224	-1
